Detailed Percentile spectrum:
     Value   Percentile   TotalCount 1/(1-Percentile)

     0.094     0.000000            2         1.00
     1.084     0.100000     35043059         1.11
     1.389     0.200000     70033121         1.25
     1.661     0.300000    104952618         1.43
     1.950     0.400000    139851154         1.67
     2.285     0.500000    174805537         2.00
     2.477     0.550000    192282064         2.22
     2.691     0.600000    209827526         2.50
     2.927     0.650000    227355418         2.86
     3.185     0.700000    244793506         3.33
     3.469     0.750000    262267214         4.00
     3.627     0.775000    270961795         4.44
     3.799     0.800000    279721025         5.00
     3.985     0.825000    288435744         5.71
     4.187     0.850000    297157084         6.67
     4.415     0.875000    306011900         8.00
     4.539     0.887500    310353979         8.89
     4.671     0.900000    314685124        10.00
     4.815     0.912500    319026220        11.43
     4.975     0.925000    323459060        13.33
     5.147     0.937500    327766965        16.00
     5.243     0.943750    329979094        17.78
     5.343     0.950000    332144955        20.00
     5.455     0.956250    334352063        22.86
     5.579     0.962500    336517798        26.67
     5.719     0.968750    338680679        32.00
     5.799     0.971875    339772557        35.56
     5.887     0.975000    340868344        40.00
     5.983     0.978125    341953652        45.71
     6.091     0.981250    343048576        53.33
     6.215     0.984375    344131583        64.00
     6.287     0.985938    344692904        71.11
     6.363     0.987500    345220935        80.00
     6.451     0.989062    345769419        91.43
     6.551     0.990625    346325460       106.67
     6.667     0.992188    346869628       128.00
     6.735     0.992969    347144194       142.22
     6.811     0.993750    347419134       160.00
     6.891     0.994531    347680664       182.86
     6.991     0.995313    347959219       213.33
     7.103     0.996094    348231536       256.00
     7.167     0.996484    348369725       284.44
     7.235     0.996875    348504384       320.00
     7.311     0.997266    348638231       365.71
     7.403     0.997656    348776301       426.67
     7.507     0.998047    348912874       512.00
     7.559     0.998242    348976373       568.89
     7.623     0.998437    349046714       640.00
     7.695     0.998633    349114057       731.43
     7.783     0.998828    349181832       853.33
     7.891     0.999023    349250061      1024.00
     7.951     0.999121    349284177      1137.78
     8.019     0.999219    349318350      1280.00
     8.095     0.999316    349352123      1462.86
     8.187     0.999414    349387192      1706.67
     8.295     0.999512    349422447      2048.00
     8.351     0.999561    349437860      2275.56
     8.423     0.999609    349455509      2560.00
     8.495     0.999658    349471392      2925.71
     8.583     0.999707    349489630      3413.33
     8.679     0.999756    349506321      4096.00
     8.735     0.999780    349514110      4551.11
     8.791     0.999805    349522603      5120.00
     8.863     0.999829    349531329      5851.43
     8.943     0.999854    349539758      6826.67
     9.047     0.999878    349548233      8192.00
     9.127     0.999890    349552623      9102.22
     9.207     0.999902    349556960     10240.00
     9.287     0.999915    349561082     11702.86
     9.383     0.999927    349565504     13653.33
     9.479     0.999939    349569491     16384.00
     9.543     0.999945    349571826     18204.44
     9.591     0.999951    349573780     20480.00
     9.647     0.999957    349575914     23405.71
     9.711     0.999963    349578033     27306.67
     9.815     0.999969    349580243     32768.00
     9.911     0.999973    349581351     36408.89
     9.975     0.999976    349582312     40960.00
    10.031     0.999979    349583398     46811.43
    10.079     0.999982    349584424     54613.33
    10.151     0.999985    349585519     65536.00
    10.199     0.999986    349586069     72817.78
    10.239     0.999988    349586588     81920.00
    10.287     0.999989    349587071     93622.86
    10.383     0.999991    349587626    109226.67
    10.559     0.999992    349588149    131072.00
    10.623     0.999993    349588404    145635.56
    10.687     0.999994    349588688    163840.00
    10.735     0.999995    349588967    187245.71
    10.799     0.999995    349589207    218453.33
    10.871     0.999996    349589487    262144.00
    10.943     0.999997    349589607    291271.11
    11.015     0.999997    349589751    327680.00
    11.047     0.999997    349589888    374491.43
    11.079     0.999998    349590029    436906.67
    11.111     0.999998    349590167    524288.00
    11.119     0.999998    349590223    582542.22
    11.135     0.999998    349590292    655360.00
    11.151     0.999999    349590354    748982.86
    11.167     0.999999    349590427    873813.33
    11.183     0.999999    349590488   1048576.00
    11.191     0.999999    349590506   1165084.44
    11.215     0.999999    349590550   1310720.00
    11.231     0.999999    349590587   1497965.71
    11.239     0.999999    349590607   1747626.67
    11.263     1.000000    349590644   2097152.00
    11.271     1.000000    349590665   2330168.89
    11.279     1.000000    349590678   2621440.00
    11.295     1.000000    349590703   2995931.43
    11.303     1.000000    349590723   3495253.33
    11.303     1.000000    349590723   4194304.00
    11.311     1.000000    349590737   4660337.78
    11.319     1.000000    349590758   5242880.00
    11.319     1.000000    349590758   5991862.86
    11.319     1.000000    349590758   6990506.67
    11.327     1.000000    349590771   8388608.00
    11.327     1.000000    349590771   9320675.55
    11.327     1.000000    349590771  10485760.00
    11.335     1.000000    349590781  11983725.71
    11.335     1.000000    349590781  13981013.34
    11.343     1.000000    349590790  16777216.00
    11.343     1.000000    349590790  18641351.10
    11.343     1.000000    349590790  20971519.98
    11.343     1.000000    349590790  23967451.45
    11.391     1.000000    349590794  27962026.68
    11.391     1.000000    349590794  33554432.00
    11.399     1.000000    349590804  37282702.28
    11.399     1.000000    349590804          inf
#[Mean    =        2.615, StdDeviation   =        1.402]
#[Max     =       11.392, Total count    =    349590804]
#[Buckets =           27, SubBuckets     =         2048]
