Detailed Percentile spectrum:
     Value   Percentile   TotalCount 1/(1-Percentile)

     0.162     0.000000            1         1.00
     1.009     0.100000     24951664         1.11
     1.304     0.200000     49874672         1.25
     1.559     0.300000     74802785         1.43
     1.825     0.400000     99689859         1.67
     2.127     0.500000    124680391         2.00
     2.293     0.550000    137109040         2.22
     2.477     0.600000    149552283         2.50
     2.687     0.650000    162015977         2.86
     2.933     0.700000    174470111         3.33
     3.241     0.750000    186967878         4.00
     3.423     0.775000    193182998         4.44
     3.627     0.800000    199399309         5.00
     3.863     0.825000    205613545         5.71
     4.143     0.850000    211834925         6.67
     4.479     0.875000    218091602         8.00
     4.667     0.887500    221181279         8.89
     4.879     0.900000    224324355        10.00
     5.115     0.912500    227448879        11.43
     5.387     0.925000    230555962        13.33
     5.719     0.937500    233641889        16.00
     5.931     0.943750    235203039        17.78
     6.199     0.950000    236771058        20.00
     6.571     0.956250    238315103        22.86
     7.135     0.962500    239878685        26.67
     8.239     0.968750    241429017        32.00
     9.847     0.971875    242208415        35.56
   105.727     0.975000    242985548        40.00
  1512.447     0.978125    243764721        45.71
  2115.583     0.981250    244545250        53.33
  2580.479     0.984375    245323868        64.00
  2766.847     0.985938    245713647        71.11
  2971.647     0.987500    246103600        80.00
  3172.351     0.989062    246490975        91.43
  3428.351     0.990625    246881845       106.67
  3696.639     0.992188    247270340       128.00
  3844.095     0.992969    247466829       142.22
  3977.215     0.993750    247658845       160.00
  4106.239     0.994531    247854788       182.86
  4280.319     0.995313    248051372       213.33
  4734.975     0.996094    248243842       256.00
  4861.951     0.996484    248339859       284.44
  4988.927     0.996875    248437480       320.00
  5095.423     0.997266    248537559       365.71
  5173.247     0.997656    248632297       426.67
  5279.743     0.998047    248729834       512.00
  5345.279     0.998242    248779637       568.89
  5402.623     0.998437    248829080       640.00
  5455.871     0.998633    248875969       731.43
  5660.671     0.998828    248924098       853.33
  5910.527     0.999023    248972925      1024.00
  6041.599     0.999121    248997200      1137.78
  6160.383     0.999219    249021757      1280.00
  6279.167     0.999316    249045603      1462.86
  6402.047     0.999414    249070786      1706.67
  6520.831     0.999512    249094377      2048.00
  6586.367     0.999561    249107181      2275.56
  6643.711     0.999609    249118797      2560.00
  6713.343     0.999658    249131349      2925.71
  6774.783     0.999707    249143253      3413.33
  6840.319     0.999756    249155910      4096.00
  6873.087     0.999780    249161474      4551.11
  6905.855     0.999805    249167538      5120.00
  6938.623     0.999829    249174160      5851.43
  6967.295     0.999854    249179458      6826.67
  7024.639     0.999878    249185533      8192.00
  7057.407     0.999890    249188733      9102.22
  7090.175     0.999902    249191746     10240.00
  7118.847     0.999915    249195103     11702.86
  7151.615     0.999927    249197899     13653.33
  7184.383     0.999939    249201154     16384.00
  7200.767     0.999945    249202709     18204.44
  7213.055     0.999951    249203906     20480.00
  7229.439     0.999957    249205442     23405.71
  7245.823     0.999963    249206978     27306.67
  7262.207     0.999969    249208770     32768.00
  7266.303     0.999973    249209213     36408.89
  7274.495     0.999976    249209922     40960.00
  7286.783     0.999979    249210754     46811.43
  7294.975     0.999982    249211458     54613.33
  7307.263     0.999985    249212472     65536.00
  7311.359     0.999986    249212885     72817.78
  7315.455     0.999988    249213397     81920.00
  7315.455     0.999989    249213397     93622.86
  7319.551     0.999991    249214141    109226.67
  7319.551     0.999992    249214141    131072.00
  7323.647     0.999993    249214722    145635.56
  7323.647     0.999994    249214722    163840.00
  7323.647     0.999995    249214722    187245.71
  7327.743     0.999995    249215101    218453.33
  7327.743     0.999996    249215101    262144.00
  7327.743     0.999997    249215101    291271.11
  7331.839     0.999997    249215243    327680.00
  7335.935     0.999997    249215810    374491.43
  7335.935     0.999998    249215810    436906.67
  7335.935     0.999998    249215810    524288.00
  7335.935     0.999998    249215810    582542.22
  7335.935     0.999998    249215810    655360.00
  7335.935     0.999999    249215810    748982.86
  7335.935     0.999999    249215810    873813.33
  7335.935     0.999999    249215810   1048576.00
  7335.935     0.999999    249215810   1165084.44
  7335.935     0.999999    249215810   1310720.00
  7335.935     0.999999    249215810   1497965.71
  7335.935     0.999999    249215810   1747626.67
  7340.031     1.000000    249215938   2097152.00
  7340.031     1.000000    249215938          inf
#[Mean    =       79.369, StdDeviation   =      534.906]
#[Max     =     7335.936, Total count    =    249215938]
#[Buckets =           27, SubBuckets     =         2048]
