Detailed Percentile spectrum:
     Value   Percentile   TotalCount 1/(1-Percentile)

     0.093     0.000000            1         1.00
     1.862     0.100000     74635080         1.11
     3.155     0.200000    149210444         1.25
     9.367     0.300000    223802011         1.43
    46.399     0.400000    298425725         1.67
   171.519     0.500000    373003828         2.00
   298.751     0.550000    410331328         2.22
   494.847     0.600000    447604861         2.50
   761.855     0.650000    484955611         2.86
  1096.703     0.700000    522230713         3.33
  1518.591     0.750000    559542306         4.00
  1751.039     0.775000    578200884         4.44
  2010.111     0.800000    596833420         5.00
  2306.047     0.825000    615457458         5.71
  2666.495     0.850000    634148731         6.67
  3119.103     0.875000    652788760         8.00
  3381.247     0.887500    662124772         8.89
  3649.535     0.900000    671401714        10.00
  3930.111     0.912500    680759505        11.43
  4304.895     0.925000    690087959        13.33
  4808.703     0.937500    699424523        16.00
  5083.135     0.943750    704053452        17.78
  5394.431     0.950000    708753181        20.00
  5873.663     0.956250    713358239        22.86
  6451.199     0.962500    718023120        26.67
  7233.535     0.968750    722688420        32.00
  7585.791     0.971875    725032810        35.56
  7909.375     0.975000    727349128        40.00
  8241.151     0.978125    729698901        45.71
  8642.559     0.981250    732047435        53.33
  9166.847     0.984375    734344801        64.00
  9576.447     0.985938    735516703        71.11
  9969.663     0.987500    736679363        80.00
 10452.991     0.989062    737835065        91.43
 10952.703     0.990625    739016700       106.67
 11476.991     0.992188    740167695       128.00
 11714.559     0.992969    740758577       142.22
 11943.935     0.993750    741337839       160.00
 12181.503     0.994531    741923624       182.86
 12468.223     0.995313    742499218       213.33
 12779.519     0.996094    743080623       256.00
 13058.047     0.996484    743372402       284.44
 13352.959     0.996875    743669485       320.00
 13582.335     0.997266    743958493       365.71
 13828.095     0.997656    744260138       426.67
 14147.583     0.998047    744540489       512.00
 14368.767     0.998242    744684984       568.89
 14540.799     0.998437    744828913       640.00
 14786.559     0.998633    744975943       731.43
 15130.623     0.998828    745119825       853.33
 19021.823     0.999023    745268557      1024.00
 19283.967     0.999121    745342336      1137.78
 20119.551     0.999219    745414108      1280.00
 22462.463     0.999316    745484274      1462.86
 24985.599     0.999414    745556996      1706.67
 25870.335     0.999512    745633028      2048.00
 26050.559     0.999561    745666502      2275.56
 26148.863     0.999609    745702783      2560.00
 26230.783     0.999658    745739892      2925.71
 26263.551     0.999707    745775937      3413.33
 26329.087     0.999756    745813705      4096.00
 26361.855     0.999780    745832500      4551.11
 26411.007     0.999805    745853937      5120.00
 26443.775     0.999829    745876973      5851.43
 26460.159     0.999854    745886243      6826.67
 26492.927     0.999878    745903358      8192.00
 26525.695     0.999890    745923690      9102.22
 26525.695     0.999902    745923690     10240.00
 26542.079     0.999915    745935240     11702.86
 26558.463     0.999927    745948443     13653.33
 26574.847     0.999939    745964266     16384.00
 26574.847     0.999945    745964266     18204.44
 26574.847     0.999951    745964266     20480.00
 26574.847     0.999957    745964266     23405.71
 26591.231     0.999963    745970190     27306.67
 26607.615     0.999969    745975712     32768.00
 26607.615     0.999973    745975712     36408.89
 26623.999     0.999976    745981018     40960.00
 26623.999     0.999979    745981018     46811.43
 26623.999     0.999982    745981018     54613.33
 26640.383     0.999985    745986673     65536.00
 26640.383     0.999986    745986673     72817.78
 26640.383     0.999988    745986673     81920.00
 26640.383     0.999989    745986673     93622.86
 26656.767     0.999991    745989947    109226.67
 26656.767     0.999992    745989947    131072.00
 26656.767     0.999993    745989947    145635.56
 26656.767     0.999994    745989947    163840.00
 26673.151     0.999995    745992924    187245.71
 26673.151     0.999995    745992924    218453.33
 26673.151     0.999996    745992924    262144.00
 26673.151     0.999997    745992924    291271.11
 26673.151     0.999997    745992924    327680.00
 26673.151     0.999997    745992924    374491.43
 26673.151     0.999998    745992924    436906.67
 26673.151     0.999998    745992924    524288.00
 26673.151     0.999998    745992924    582542.22
 26673.151     0.999998    745992924    655360.00
 26689.535     0.999999    745993997    748982.86
 26689.535     1.000000    745993997          inf
#[Mean    =     1200.542, StdDeviation   =     2216.434]
#[Max     =    26673.152, Total count    =    745993997]
#[Buckets =           27, SubBuckets     =         2048]
