Detailed Percentile spectrum:
     Value   Percentile   TotalCount 1/(1-Percentile)

     0.161     0.000000            2         1.00
     1.117     0.100000     19992937         1.11
     1.517     0.200000     39963884         1.25
     1.920     0.300000     59954855         1.43
     2.355     0.400000     79967371         1.67
     2.797     0.500000     99933406         2.00
     3.039     0.550000    109860972         2.22
     3.309     0.600000    119868051         2.50
     3.599     0.650000    129901039         2.86
     3.897     0.700000    139856725         3.33
     4.235     0.750000    149831861         4.00
     4.427     0.775000    154878802         4.44
     4.631     0.800000    159827668         5.00
     4.843     0.825000    164838755         5.71
     5.059     0.850000    169797840         6.67
     5.295     0.875000    174826746         8.00
     5.427     0.887500    177328278         8.89
     5.571     0.900000    179774637        10.00
     5.731     0.912500    182302447        11.43
     5.899     0.925000    184820826        13.33
     6.075     0.937500    187267107        16.00
     6.171     0.943750    188510989        17.78
     6.275     0.950000    189782146        20.00
     6.387     0.956250    191008263        22.86
     6.531     0.962500    192285908        26.67
     6.715     0.968750    193515024        32.00
     6.831     0.971875    194146391        35.56
     6.955     0.975000    194760526        40.00
     7.099     0.978125    195392439        45.71
     7.259     0.981250    196008636        53.33
     7.451     0.984375    196627731        64.00
     7.567     0.985938    196947780        71.11
     7.691     0.987500    197256102        80.00
     7.831     0.989062    197564779        91.43
     7.987     0.990625    197874269       106.67
     8.175     0.992188    198186842       128.00
     8.295     0.992969    198348689       142.22
     8.423     0.993750    198506181       160.00
     8.567     0.994531    198659450       182.86
     8.735     0.995313    198816498       213.33
     8.927     0.996094    198970717       256.00
     9.031     0.996484    199047958       284.44
     9.143     0.996875    199123422       320.00
     9.271     0.997266    199201661       365.71
     9.423     0.997656    199282150       426.67
     9.591     0.998047    199358768       512.00
     9.687     0.998242    199395976       568.89
     9.791     0.998437    199434984       640.00
     9.895     0.998633    199474488       731.43
    10.015     0.998828    199514068       853.33
    10.143     0.999023    199551930      1024.00
    10.223     0.999121    199572477      1137.78
    10.295     0.999219    199591624      1280.00
    10.383     0.999316    199610229      1462.86
    10.495     0.999414    199630294      1706.67
    10.631     0.999512    199649684      2048.00
    10.695     0.999561    199658596      2275.56
    10.775     0.999609    199668421      2560.00
    10.887     0.999658    199678443      2925.71
    10.983     0.999707    199688278      3413.33
    11.095     0.999756    199697871      4096.00
    11.159     0.999780    199702888      4551.11
    11.231     0.999805    199707361      5120.00
    11.319     0.999829    199712362      5851.43
    11.407     0.999854    199717047      6826.67
    11.519     0.999878    199721922      8192.00
    11.607     0.999890    199724382      9102.22
    11.687     0.999902    199726845     10240.00
    11.815     0.999915    199729404     11702.86
    11.887     0.999927    199731700     13653.33
    11.991     0.999939    199734116     16384.00
    12.063     0.999945    199735435     18204.44
    12.111     0.999951    199736614     20480.00
    12.199     0.999957    199737835     23405.71
    12.279     0.999963    199739120     27306.67
    12.343     0.999969    199740261     32768.00
    12.415     0.999973    199740867     36408.89
    12.503     0.999976    199741428     40960.00
    12.599     0.999979    199742023     46811.43
    12.727     0.999982    199742654     54613.33
    12.847     0.999985    199743251     65536.00
    12.951     0.999986    199743545     72817.78
    13.007     0.999988    199743876     81920.00
    13.071     0.999989    199744190     93622.86
    13.223     0.999991    199744480    109226.67
    13.311     0.999992    199744811    131072.00
    13.399     0.999993    199744916    145635.56
    13.471     0.999994    199745088    163840.00
    13.511     0.999995    199745256    187245.71
    13.607     0.999995    199745385    218453.33
    13.831     0.999996    199745553    262144.00
    13.887     0.999997    199745621    291271.11
    13.967     0.999997    199745690    327680.00
    13.975     0.999997    199745755    374491.43
    14.063     0.999998    199745843    436906.67
    14.127     0.999998    199745927    524288.00
    14.143     0.999998    199745947    582542.22
    14.223     0.999998    199745990    655360.00
    14.239     0.999999    199746021    748982.86
    14.431     0.999999    199746070    873813.33
    15.015     0.999999    199746114   1048576.00
    15.023     0.999999    199746135   1165084.44
    15.023     0.999999    199746135   1310720.00
    15.039     0.999999    199746159   1497965.71
    15.055     0.999999    199746183   1747626.67
    15.063     1.000000    199746200   2097152.00
    15.071     1.000000    199746219   2330168.89
    15.071     1.000000    199746219   2621440.00
    15.079     1.000000    199746223   2995931.43
    15.111     1.000000    199746244   3495253.33
    15.111     1.000000    199746244   4194304.00
    15.119     1.000000    199746266   4660337.78
    15.119     1.000000    199746266   5242880.00
    15.119     1.000000    199746266   5991862.86
    15.119     1.000000    199746266   6990506.67
    15.119     1.000000    199746266   8388608.00
    15.119     1.000000    199746266   9320675.55
    15.127     1.000000    199746282  10485760.00
    15.127     1.000000    199746282  11983725.71
    15.127     1.000000    199746282  13981013.34
    15.127     1.000000    199746282  16777216.00
    15.127     1.000000    199746282  18641351.10
    15.127     1.000000    199746282  20971519.98
    15.127     1.000000    199746282  23967451.45
    15.127     1.000000    199746282  27962026.68
    15.127     1.000000    199746282  33554432.00
    15.127     1.000000    199746282  37282702.28
    15.135     1.000000    199746287  41943039.96
    15.135     1.000000    199746287          inf
#[Mean    =        3.113, StdDeviation   =        1.739]
#[Max     =       15.128, Total count    =    199746287]
#[Buckets =           27, SubBuckets     =         2048]
