Detailed Percentile spectrum:
     Value   Percentile   TotalCount 1/(1-Percentile)

     0.097     0.000000            1         1.00
     1.049     0.100000     30000546         1.11
     1.350     0.200000     59944794         1.25
     1.624     0.300000     89975275         1.43
     1.919     0.400000    119940848         1.67
     2.261     0.500000    149825708         2.00
     2.457     0.550000    164882986         2.22
     2.671     0.600000    179916727         2.50
     2.901     0.650000    194771183         2.86
     3.151     0.700000    209776888         3.33
     3.421     0.750000    224787351         4.00
     3.571     0.775000    232233450         4.44
     3.735     0.800000    239804895         5.00
     3.909     0.825000    247253208         5.71
     4.099     0.850000    254760365         6.67
     4.307     0.875000    262263988         8.00
     4.423     0.887500    266043670         8.89
     4.543     0.900000    269709866        10.00
     4.675     0.912500    273440194        11.43
     4.823     0.925000    277256719        13.33
     4.987     0.937500    280995259        16.00
     5.075     0.943750    282806306        17.78
     5.175     0.950000    284735235        20.00
     5.279     0.956250    286604196        22.86
     5.395     0.962500    288464193        26.67
     5.523     0.968750    290283453        32.00
     5.599     0.971875    291248962        35.56
     5.679     0.975000    292180329        40.00
     5.767     0.978125    293103826        45.71
     5.867     0.981250    294033975        53.33
     5.983     0.984375    294973783        64.00
     6.051     0.985938    295460647        71.11
     6.119     0.987500    295913597        80.00
     6.195     0.989062    296379947        91.43
     6.283     0.990625    296849560       106.67
     6.387     0.992188    297310812       128.00
     6.451     0.992969    297553980       142.22
     6.519     0.993750    297784547       160.00
     6.595     0.994531    298011826       182.86
     6.683     0.995313    298246518       213.33
     6.783     0.996094    298478400       256.00
     6.839     0.996484    298594976       284.44
     6.903     0.996875    298713774       320.00
     6.975     0.997266    298831591       365.71
     7.059     0.997656    298950363       426.67
     7.155     0.998047    299065219       512.00
     7.211     0.998242    299121995       568.89
     7.275     0.998437    299182965       640.00
     7.343     0.998633    299239563       731.43
     7.423     0.998828    299296808       853.33
     7.515     0.999023    299355003      1024.00
     7.567     0.999121    299384409      1137.78
     7.631     0.999219    299415061      1280.00
     7.699     0.999316    299444056      1462.86
     7.775     0.999414    299472477      1706.67
     7.863     0.999512    299501367      2048.00
     7.915     0.999561    299516540      2275.56
     7.963     0.999609    299530327      2560.00
     8.027     0.999658    299545698      2925.71
     8.103     0.999707    299560111      3413.33
     8.191     0.999756    299574647      4096.00
     8.239     0.999780    299581720      4551.11
     8.303     0.999805    299588885      5120.00
     8.375     0.999829    299596426      5851.43
     8.447     0.999854    299604012      6826.67
     8.527     0.999878    299610792      8192.00
     8.575     0.999890    299614643      9102.22
     8.623     0.999902    299618473     10240.00
     8.671     0.999915    299621859     11702.86
     8.727     0.999927    299625682     13653.33
     8.799     0.999939    299629319     16384.00
     8.847     0.999945    299630945     18204.44
     8.935     0.999951    299632812     20480.00
     9.055     0.999957    299634575     23405.71
     9.151     0.999963    299636504     27306.67
     9.239     0.999969    299638382     32768.00
     9.279     0.999973    299639190     36408.89
     9.327     0.999976    299640071     40960.00
     9.383     0.999979    299641077     46811.43
     9.431     0.999982    299641891     54613.33
     9.503     0.999985    299642881     65536.00
     9.543     0.999986    299643384     72817.78
     9.567     0.999988    299643772     81920.00
     9.631     0.999989    299644197     93622.86
     9.711     0.999991    299644641    109226.67
     9.959     0.999992    299645086    131072.00
     9.999     0.999993    299645315    145635.56
    10.031     0.999994    299645563    163840.00
    10.071     0.999995    299645796    187245.71
    10.119     0.999995    299646020    218453.33
    10.207     0.999996    299646230    262144.00
    10.255     0.999997    299646354    291271.11
    10.279     0.999997    299646461    327680.00
    10.303     0.999997    299646570    374491.43
    10.327     0.999998    299646685    436906.67
    10.383     0.999998    299646812    524288.00
    10.407     0.999998    299646866    582542.22
    10.431     0.999998    299646923    655360.00
    10.447     0.999999    299646988    748982.86
    10.471     0.999999    299647041    873813.33
    10.495     0.999999    299647087   1048576.00
    10.511     0.999999    299647121   1165084.44
    10.527     0.999999    299647162   1310720.00
    10.535     0.999999    299647175   1497965.71
    10.751     0.999999    299647205   1747626.67
    10.767     1.000000    299647246   2097152.00
    10.767     1.000000    299647246   2330168.89
    10.775     1.000000    299647261   2621440.00
    10.783     1.000000    299647282   2995931.43
    10.791     1.000000    299647302   3495253.33
    10.791     1.000000    299647302   4194304.00
    10.799     1.000000    299647319   4660337.78
    10.799     1.000000    299647319   5242880.00
    10.807     1.000000    299647340   5991862.86
    10.807     1.000000    299647340   6990506.67
    10.807     1.000000    299647340   8388608.00
    10.807     1.000000    299647340   9320675.55
    10.815     1.000000    299647360  10485760.00
    10.815     1.000000    299647360  11983725.71
    10.815     1.000000    299647360  13981013.34
    10.815     1.000000    299647360  16777216.00
    10.815     1.000000    299647360  18641351.10
    10.815     1.000000    299647360  20971519.98
    10.815     1.000000    299647360  23967451.45
    10.815     1.000000    299647360  27962026.68
    10.823     1.000000    299647370  33554432.00
    10.823     1.000000    299647370          inf
#[Mean    =        2.561, StdDeviation   =        1.359]
#[Max     =       10.816, Total count    =    299647370]
#[Buckets =           27, SubBuckets     =         2048]
