Detailed Percentile spectrum:
     Value   Percentile   TotalCount 1/(1-Percentile)

     0.096     0.000000            1         1.00
     1.104     0.100000     40013435         1.11
     1.408     0.200000     79976356         1.25
     1.676     0.300000    119928467         1.43
     1.957     0.400000    159822552         1.67
     2.281     0.500000    199975476         2.00
     2.467     0.550000    219846393         2.22
     2.677     0.600000    239850341         2.50
     2.915     0.650000    259819826         2.86
     3.179     0.700000    279680940         3.33
     3.477     0.750000    299755469         4.00
     3.641     0.775000    309641418         4.44
     3.821     0.800000    319661779         5.00
     4.019     0.825000    329700457         5.71
     4.235     0.850000    339719338         6.67
     4.475     0.875000    349669154         8.00
     4.607     0.887500    354682799         8.89
     4.747     0.900000    359615301        10.00
     4.899     0.912500    364568669        11.43
     5.071     0.925000    369623115        13.33
     5.259     0.937500    374616485        16.00
     5.363     0.943750    377138414        17.78
     5.471     0.950000    379587581        20.00
     5.591     0.956250    382085656        22.86
     5.723     0.962500    384562198        26.67
     5.875     0.968750    387082355        32.00
     5.959     0.971875    388308709        35.56
     6.055     0.975000    389568498        40.00
     6.159     0.978125    390817710        45.71
     6.275     0.981250    392051713        53.33
     6.411     0.984375    393307816        64.00
     6.487     0.985938    393927117        71.11
     6.571     0.987500    394550713        80.00
     6.667     0.989062    395181711        91.43
     6.771     0.990625    395790913       106.67
     6.895     0.992188    396411972       128.00
     6.967     0.992969    396731321       142.22
     7.043     0.993750    397033812       160.00
     7.131     0.994531    397350465       182.86
     7.231     0.995313    397657464       213.33
     7.351     0.996094    397968534       256.00
     7.419     0.996484    398123750       284.44
     7.495     0.996875    398280363       320.00
     7.583     0.997266    398439777       365.71
     7.679     0.997656    398592039       426.67
     7.795     0.998047    398751179       512.00
     7.859     0.998242    398825507       568.89
     7.939     0.998437    398905702       640.00
     8.027     0.998633    398980758       731.43
     8.135     0.998828    399060370       853.33
     8.255     0.999023    399136540      1024.00
     8.327     0.999121    399177784      1137.78
     8.407     0.999219    399216283      1280.00
     8.495     0.999316    399255476      1462.86
     8.591     0.999414    399292931      1706.67
     8.711     0.999512    399333336      2048.00
     8.775     0.999561    399352091      2275.56
     8.847     0.999609    399371415      2560.00
     8.935     0.999658    399391217      2925.71
     9.039     0.999707    399410476      3413.33
     9.175     0.999756    399429629      4096.00
     9.255     0.999780    399439199      4551.11
     9.383     0.999805    399448809      5120.00
     9.503     0.999829    399458646      5851.43
     9.623     0.999854    399468333      6826.67
     9.751     0.999878    399477998      8192.00
     9.831     0.999890    399483063      9102.22
     9.903     0.999902    399487611     10240.00
     9.999     0.999915    399492816     11702.86
    10.087     0.999927    399497304     13653.33
    10.303     0.999939    399502178     16384.00
    10.415     0.999945    399504701     18204.44
    10.519     0.999951    399507107     20480.00
    10.631     0.999957    399509494     23405.71
    10.751     0.999963    399511963     27306.67
    10.863     0.999969    399514391     32768.00
    10.935     0.999973    399515569     36408.89
    11.039     0.999976    399516800     40960.00
    11.167     0.999979    399518028     46811.43
    11.367     0.999982    399519309     54613.33
    11.455     0.999985    399520494     65536.00
    11.487     0.999986    399521073     72817.78
    11.535     0.999988    399521680     81920.00
    11.583     0.999989    399522287     93622.86
    11.647     0.999991    399522955    109226.67
    11.703     0.999992    399523537    131072.00
    11.735     0.999993    399523807    145635.56
    11.775     0.999994    399524139    163840.00
    11.815     0.999995    399524458    187245.71
    11.911     0.999995    399524736    218453.33
    12.055     0.999996    399525028    262144.00
    12.087     0.999997    399525198    291271.11
    12.127     0.999997    399525322    327680.00
    12.191     0.999997    399525483    374491.43
    12.863     0.999998    399525623    436906.67
    12.903     0.999998    399525792    524288.00
    12.927     0.999998    399525854    582542.22
    12.967     0.999998    399525940    655360.00
    13.015     0.999999    399526017    748982.86
    13.055     0.999999    399526094    873813.33
    13.199     0.999999    399526158   1048576.00
    13.223     0.999999    399526213   1165084.44
    13.239     0.999999    399526237   1310720.00
    13.271     0.999999    399526287   1497965.71
    13.287     0.999999    399526319   1747626.67
    13.303     1.000000    399526346   2097152.00
    13.319     1.000000    399526378   2330168.89
    13.327     1.000000    399526399   2621440.00
    13.335     1.000000    399526412   2995931.43
    13.583     1.000000    399526428   3495253.33
    13.591     1.000000    399526441   4194304.00
    13.839     1.000000    399526460   4660337.78
    13.839     1.000000    399526460   5242880.00
    13.847     1.000000    399526479   5991862.86
    13.847     1.000000    399526479   6990506.67
    13.855     1.000000    399526497   8388608.00
    13.855     1.000000    399526497   9320675.55
    13.863     1.000000    399526515  10485760.00
    13.863     1.000000    399526515  11983725.71
    13.863     1.000000    399526515  13981013.34
    13.863     1.000000    399526515  16777216.00
    13.863     1.000000    399526515  18641351.10
    13.871     1.000000    399526531  20971519.98
    13.871     1.000000    399526531  23967451.45
    13.871     1.000000    399526531  27962026.68
    13.871     1.000000    399526531  33554432.00
    13.871     1.000000    399526531  37282702.28
    13.871     1.000000    399526531  41943039.96
    13.871     1.000000    399526531  47934902.91
    13.871     1.000000    399526531  55924053.19
    13.871     1.000000    399526531  67108864.00
    13.871     1.000000    399526531  74565404.57
    41.823     1.000000    399526536  83886080.31
    41.823     1.000000    399526536          inf
#[Mean    =        2.639, StdDeviation   =        1.435]
#[Max     =       41.792, Total count    =    399526536]
#[Buckets =           27, SubBuckets     =         2048]
